*********************  Core Excitation Data  ********************
****************  A.P. Hitchcock & D.C. Mancini  ****************
*
* Formula: CH3COOH
* Name: Acetic acid
* Edge: C 1s
* Alpha Formula: C2H4O2
* Data Source: Hitchcock
* Filename:  ai-0cckk.os
* Ref. Code: RI&88
* Write Date: 93/06/10
* Reference: J. El. Spec. 47 (88) 53.
* Source and Purity: N/A
* Acquisition Mode: EELS, 2 deg, 2500 eV CRE mode, 0.7 eV fwhm
*--------------------------------------------------------------
* No. of Spectra: 2    name1- 0aic.    name2- 0aic.os
*   E (eV)        Raw data             Osc. Str. per atom (E-2)
*--------------------------------------------------------------
   274.9920      -255.2830     -8.3515070E-04
   275.1320      -470.1640      2.0866870E-03
   275.2720      -305.0650     -5.8891080E-05
   275.4120       480.5240      2.3430610E-03
   275.5510       20.25030     -3.7574330E-03
   275.6910      -192.3650     -1.3992440E-03
   275.8310      -236.1060     -7.5760510E-04
   275.9710       257.3840     -4.1621410E-04
   276.1110       89.40070     -2.6178940E-03
   276.2510       360.1490      1.0786430E-03
   276.3900       72.94490     -2.7326090E-03
   276.5300      -126.9830     -1.9504860E-03
   276.6700      -199.7260     -9.1424120E-04
   276.8100       304.1080      5.5174140E-04
   276.9500      -166.4320     -1.2537960E-03
   277.0900       286.9800      4.3376260E-04
   277.2290       299.7520      6.6333530E-04
   277.3690       109.9100     -1.8562390E-03
   277.5090      -63.25220     -2.4359030E-03
   277.6490      -256.6540      2.4832790E-04
   277.7890       249.3580      2.0551270E-04
   277.9290      -269.9250      5.4230100E-04
   278.0680       139.5960     -1.1797860E-03
   278.2080       16.91050     -2.8008900E-03
   278.3480      -300.7940      1.1345570E-03
   278.4880       163.6500     -6.8565730E-04
   278.6280      -160.1610     -6.7811700E-04
   278.7680      -269.1300      8.7233520E-04
   278.9070       .9512140     -2.7545260E-03
   279.0470       138.7810     -8.0631010E-04
   279.1870       26.46630     -2.2971590E-03
   279.3270       55.09230     -1.8491920E-03
   279.4670      -8.462620     -2.4384540E-03
   279.6070       17.29680     -2.2631470E-03
   279.7460      -265.8980      1.2267460E-03
   279.8860       397.6260      3.1070110E-03
   280.0260      -154.8240     -1.9759650E-04
   280.1660      -682.0680      7.1706250E-03
   280.3060       179.5020      2.5639110E-04
   280.4450       5.172920     -2.1109680E-03
   280.5850      -491.5000      4.7094640E-03
   280.7250       38.04320     -1.5460260E-03
   280.8650       83.46030     -8.5862870E-04
   281.0050       114.4170     -3.7168170E-04
   281.1450      1.4199700E-02 -1.9150980E-03
   281.2840      -554.0110      5.8882950E-03
   281.4240       186.8250      8.0803150E-04
   281.5640       95.09580     -4.2147770E-04
   281.7040       277.4110      2.1924800E-03
   281.8440      -117.9640      1.0200030E-05
   281.9840      -34.85750     -1.1031050E-03
   282.1230       106.8360     -3.5659870E-05
   282.2630       359.4960      3.5811700E-03
   282.4030       79.68260     -3.0776010E-04
   282.5430      -80.42240     -2.4215660E-04
   282.6830      -229.0370      1.9146080E-03
   282.8230      -175.4060      1.2128990E-03
   282.9620       104.3150      2.6178320E-04
   283.1020      -268.2610      2.6432730E-03
   283.2420      -179.6740      1.4434140E-03
   283.3820       285.7610      3.0085540E-03
   283.5220      -22.71800     -6.7654190E-04
   283.6620       505.4250      6.2554150E-03
   283.8010      -130.9530      9.7600830E-04
   283.9410       117.0540      8.3388330E-04
   284.0810      -80.63280      3.6944560E-04
   284.2210      -56.89480      8.5421760E-05
   284.3610      -184.0010      1.9613850E-03
   284.5010       2.530930     -5.8347770E-04
   284.6400       402.3820      5.2103560E-03
   284.7800       126.6610      1.3089950E-03
   284.9200       313.4230      4.0521620E-03
   285.0600       375.7440      5.0090660E-03
   285.2000       369.8100      4.9839570E-03
   285.3400       542.2960      7.5336050E-03
   285.4790       482.5420      6.7329770E-03
   285.6190       389.8970      5.4553200E-03
   285.7590       180.8760      2.4899880E-03
   285.8990       556.1480      7.9865320E-03
   286.0390       505.1380      7.3099350E-03
   286.1790       633.2280      9.2330790E-03
   286.3180       1329.110      1.9415320E-02
   286.4580       1948.240      2.8502510E-02
   286.5980       2583.250      3.7840400E-02
   286.7380       5031.710      7.3649480E-02
   286.8780       7831.570       .1146661    
   287.0180       12015.60       .1760027    
   287.1570       15920.20       .2333794    
   287.2970       19409.90       .2848020    
   287.4370       22835.60       .3353950    
   287.5770       25577.20       .3760534    
   287.7170       29623.80       .4359728    
   287.8570       37521.30       .5526746    
   287.9960       57704.70       .8505452    
   288.1360       96949.20       1.430055    
   288.2760       159806.0       2.359271    
   288.4160       232998.0       3.443147    
   288.5560       287805.0       4.257402    
   288.6960       297933.0       4.411926    
   288.8350       268134.0       3.975006    
   288.9750       208838.0       3.099547    
   289.1150       153687.0       2.283785    
   289.2550       111819.0       1.663770    
   289.3950       84905.90       1.265022    
   289.5350       69803.80       1.041405    
   289.6740       60438.80       .9028769    
   289.8140       55076.00       .8238137    
   289.9540       52883.30       .7919682    
   290.0940       53937.60       .8086388    
   290.2340       55011.60       .8256371    
   290.3740       55580.00       .8350893    
   290.5130       54648.80       .8220401    
   290.6530       53477.60       .8053668    
   290.7930       53195.20       .8020249    
   290.9330       53212.50       .8031896    
   291.0730       53367.50       .8064314    
   291.2130       53537.80       .8099047    
   291.3520       54678.20       .8280349    
   291.4920       53958.90       .8180889    
   291.6320       53647.30       .8142911    
   291.7720       54322.60       .8254355    
   291.9120       52502.20       .7987506    
   292.0520       51002.40       .7768714    
   292.1910       50363.60       .7680269    
   292.3310       50272.80       .7675121    
   292.4710       50552.40       .7726328    
   292.6110       51002.20       .7803606    
   292.7510       53121.70       .8135922    
   292.8910       57765.60       .8854730    
   293.0300       63441.00       .9732729    
   293.1700       70853.30       1.087862    
   293.3100       78639.10       1.208418    
   293.4500       83156.40       1.279067    
   293.5900       81088.10       1.248693    
   293.7290       76754.60       1.183407    
   293.8690       73008.80       1.127040    
   294.0090       73333.70       1.133286    
   294.1490       76022.60       1.176013    
   294.2890       79703.00       1.234137    
   294.4290       80625.40       1.249752    
   294.5680       80366.40       1.247100    
   294.7080       80840.90       1.255810    
   294.8480       81100.30       1.261207    
   294.9880       81119.20       1.262876    
   295.1280       80505.70       1.254719    
   295.2680       81262.90       1.267869    
   295.4070       82469.20       1.288028    
   295.5470       83592.60       1.306946    
   295.6870       85505.30       1.338218    
   295.8270       88048.90       1.379410    
   295.9670       88735.00       1.391636    
   296.1070       89796.20       1.409760    
   296.2460       90903.00       1.428620    
   296.3860       92285.30       1.451857    
   296.5260       94164.40       1.482936    
   296.6660       94629.80       1.491859    
   296.8060       97055.70       1.531647    
   296.9460       96695.70       1.527630    
   297.0850       96565.80       1.527217    
   297.2250       98862.10       1.565115    
   297.3650       98492.90       1.560967    
   297.5050       98271.90       1.559156    
   297.6450       96804.20       1.537597    
   297.7850       95788.10       1.523145    
   297.9240       96132.50       1.530241    
   298.0640       93662.40       1.492651    
   298.2040       93401.50       1.490112    
   298.3440       92239.60       1.473222    
   298.4840       90900.60       1.453478    
   298.6240       91939.80       1.471621    
   298.7630       88118.00       1.412170    
   298.9030       87806.80       1.408718    
   299.0430       85017.40       1.365604    
   299.1830       83632.80       1.344902    
   299.3230       82975.10       1.335808    
   299.4630       81266.90       1.309830    
   299.6020       79556.10       1.283747    
   299.7420       77939.10       1.259124    
   299.8820       77207.90       1.248713    
   300.0220       77200.40       1.249945    
   300.1620       76053.00       1.232781    
   300.3020       75540.10       1.225829    
   300.4410       73968.40       1.201734    
   300.5810       73742.80       1.199383    
   300.7210       72914.60       1.187260    
   300.8610       72858.30       1.187631    
   301.0010       72837.20       1.188575    
   301.1410       72745.10       1.188360    
   301.2800       73718.50       1.205474    
   301.4200       72091.80       1.180280    
   301.5600       72791.00       1.192955    
   301.7000       72400.30       1.187866    
   301.8400       71934.60       1.181538    
   301.9800       71831.00       1.181123    
   302.1190       71571.70       1.178142    
   302.2590       71087.90       1.171485    
   302.3990       72308.20       1.192768    
   302.5390       71820.70       1.186046    
   302.6790       71147.00       1.176250    
   302.8190       70700.10       1.170165    
   302.9580       70640.00       1.170427    
   303.0980       71189.30       1.180746    
   303.2380       70010.60       1.162561    
   303.3780       69388.10       1.153526    
   303.5180       67958.10       1.131118    
   303.6580       68879.00       1.147582    
   303.7970       68018.80       1.134553    
   303.9370       68090.10       1.136958    
   304.0770       67168.70       1.122880    
   304.2170       66019.90       1.104989    
   304.3570       64692.30       1.084085    
   304.4970       64925.00       1.089130    
   304.6360       64264.70       1.079285    
   304.7760       63843.30       1.073412    
   304.9160       61664.70       1.038165    
   305.0560       62333.10       1.050464    
   305.1960       61988.10       1.045818    
   305.3360       61247.00       1.034525    
   305.4750       60158.60       1.017370    
   305.6150       59613.00       1.009303    
   305.7550       59855.80       1.014472    
   305.8950       58363.80       .9904546    
   306.0350       58033.70       .9859625    
   306.1740       57792.60       .9829522    
   306.3140       56239.50       .9577905    
   306.4540       55844.10       .9521430    
   306.5940       56731.30       .9681822    
   306.7340       55439.40       .9473475    
   306.8740       55019.00       .9412434    
   307.0130       54947.00       .9410284    
   307.1530       54243.00       .9300866    
   307.2930       53474.40       .9180194    
   307.4330       53620.50       .9214980    
   307.5730       53643.50       .9228865    
   307.7130       53262.90       .9173895    
   307.8520       51884.00       .8948317    
   307.9920       52373.20       .9041552    
   308.1320       51532.70       .8907552    
   308.2720       51838.00       .8969458    
   308.4120       51056.20       .8845066    
   308.5520       50725.30       .8797836    
   308.6910       51503.10       .8940905    
   308.8310       50823.10       .8833614    
   308.9710       50695.60       .8821175    
   309.1110       50426.90       .8784409    
   309.2510       49875.50       .8698749    
   309.3910       49451.10       .8634886    
   309.5300       48972.20       .8561362    
   309.6700       49192.90       .8608781    
   309.8100       49882.00       .8737386    
   309.9500       48788.40       .8557208    
   310.0900       48357.90       .8491727    
   310.2300       48440.00       .8515159    
   310.3690       48106.60       .8466308    
   310.5090       48195.10       .8490826    
   310.6490       48300.60       .8518369    
   310.7890       47387.00       .8368167    
   310.9290       47759.60       .8442272    
   311.0690       47325.80       .8375508    
   311.2080       47624.20       .8436688    
   311.3480       47148.50       .8362467    
   311.4880       46944.10       .8335596    
   311.6280       47650.40       .8468529    
   311.7680       47442.40       .8441116    
   311.9080       46566.90       .8296260    
   312.0470       47056.30       .8391239    
   312.1870       46581.20       .8316546    
   312.3270       45600.60       .8152514    
   312.4670       45847.50       .8204910    
   312.6070       46200.70       .8276104    
   312.7470       46516.60       .8340935    
   312.8860       45950.40       .8249545    
   313.0260       46310.80       .8322271    
   313.1660       46534.60       .8370941    
   313.3060       46076.60       .8298571    
   313.4460       45638.50       .8229574    
   313.5860       44139.20       .7971490    
   313.7250       45691.10       .8256532    
   313.8650       45320.20       .8199238    
   314.0050       44343.40       .8033628    
   314.1450       45915.60       .8323224    
   314.2850       45309.80       .8223779    
   314.4250       44158.60       .8026426    
   314.5640       45464.60       .8269045    
   314.7040       45433.20       .8272280    
   314.8440       44003.10       .8024248    
   314.9840       44806.90       .8177363    
   315.1240       43889.60       .8021026    
   315.2640       44196.10       .8084863    
   315.4030       44655.00       .8176186    
   315.5430       43589.80       .7992670    
   315.6830       43903.30       .8057818    
   315.8230       43422.50       .7979513    
   315.9630       44805.60       .8238481    
   316.1030       44126.60       .8124175    
   316.2420       43606.40       .8038399    
   316.3820       43162.00       .7966287    
   316.5220       43120.80       .7967330    
   316.6620       43595.20       .8062147    
   316.8020       43463.60       .8046812    
   316.9420       42742.00       .7923815    
   317.0810       43757.80       .8117617    
   317.2210       43021.30       .7991690    
   317.3610       42633.30       .7929246    
   317.5010       43567.10       .8108671    
   317.6410       42037.70       .7837065    
   317.7810       42660.30       .7959631    
   317.9200       42025.30       .7851434    
   318.0600       41824.40       .7822894    
   318.2000       42626.90       .7978877    
   318.3400       42636.80       .7989174    
   318.4800       42224.80       .7921724    
   318.6200       42445.10       .7970830    
   318.7590       42144.80       .7923754    
   318.8990       41660.90       .7842721    
   319.0390       41944.60       .7903550    
   319.1790       41181.30       .7770534    
   319.3190       41203.80       .7782994    
   319.4580       41695.70       .7882548    
   319.5980       42174.10       .7979819    
   319.7380       41938.90       .7944505    
   319.8780       40482.70       .7681811    
   320.0180       41109.80       .7806888    
   320.1580       41110.60       .7815330    
   320.2970       40310.00       .7674004    
   320.4370       40065.20       .7636430    
   320.5770       40853.20       .7792009    
   320.7170       40779.00       .7786363    
   320.8570       40818.30       .7801964    
   320.9970       40473.40       .7745529    
   321.1360       40658.20       .7788395    
   321.2760       40362.40       .7741021    
   321.4160       40964.40       .7862536    
   321.5560       39833.70       .7657804    
   321.6960       40660.90       .7821961    
   321.8360       40239.00       .7750547    
   321.9750       40116.70       .7735603    
   322.1150       39854.70       .7694212    
   322.2550       39839.20       .7699419    
   322.3950       39519.30       .7646903    
   322.5350       39105.80       .7576563    
   322.6750       39838.90       .7723823    
   322.8140       38646.10       .7505118    
   322.9540       39383.40       .7653407    
   323.0940       39521.60       .7687830    
   323.2340       38937.30       .7584544    
   323.3740       39179.60       .7638788    
   323.5140       39047.70       .7621640    
   323.6530       39581.90       .7731847    
   323.7930       38685.80       .7568398    
   323.9330       38185.20       .7480489    
   324.0730       38481.70       .7545238    
   324.2130       38792.80       .7612977    
   324.3530       38750.00       .7612741    
   324.4920       38670.90       .7605529    
   324.6320       38110.40       .7505589    
   324.7720       39247.60       .7732727    
   324.9120       38306.20       .7559180    
   325.0520       37570.00       .7424966    
   325.1920       38200.70       .7554754    
   325.3310       38443.70       .7609683    
   325.4710       37858.60       .7504297    
   325.6110       38218.00       .7581906    
   325.7510       38043.00       .7555918    
   325.8910       36982.90       .7357870    
   326.0310       37538.90       .7473749    
   326.1700       37931.50       .7558002    
   326.3100       37937.90       .7567217    
   326.4500       37371.20       .7464598    
   326.5900       36785.50       .7358100    
   326.7300       37854.50       .7574756    
   326.8700       37019.30       .7419315    
   327.0090       36827.20       .7389433    
   327.1490       36777.60       .7387488    
   327.2890       36988.10       .7436522    
   327.4290       36520.30       .7352451    
   327.5690       36492.10       .7354661    
   327.7090       36408.80       .7345942    
   327.8480       36802.90       .7431271    
   327.9880       35943.90       .7269665    
   328.1280       36319.80       .7351470    
   328.2680       37520.70       .7596496    
   328.4080       36428.10       .7388312    
   328.5480       36093.30       .7329795    
   328.6870       36045.80       .7327985    
   328.8270       34950.00       .7118305    
   328.9670       35832.30       .7300989    
   329.1070       36054.10       .7352711    
   329.2470       35935.80       .7336858    
   329.3870       35983.90       .7354127    
   329.5260       35076.70       .7180927    
   329.6660       35294.70       .7231936    
   329.8060       34986.40       .7177932    
   329.9460       35182.10       .7224561    
   330.0860       35147.80       .7225256    
   330.2260       35013.20       .7205830    
   330.3650       34785.40       .7167645    
   330.5050       34613.10       .7140570    
   330.6450       34142.70       .7053519    
   330.7850       34893.10       .7211815    
   330.9250       34869.40       .7214581    
   331.0650       34174.20       .7082035    
   331.2040       35265.70       .7309557    
   331.3440       34349.60       .7132220    
   331.4840       35027.70       .7276692    
   331.6240       34102.40       .7097085    
   331.7640       34249.70       .7134354    
   331.9040       34457.20       .7183816    
   332.0430       34661.10       .7232596    
   332.1830       33789.30       .7063151    
   332.3230       34491.80       .7213267    
   332.4630       34395.50       .7201235    
   332.6030       33863.40       .7100335    
   332.7420       33608.70       .7055761    
   332.8820       34275.10       .7199090    
   333.0220       34242.40       .7199907    
   333.1620       33757.40       .7108256    
   333.3020       33253.00       .7012411    
   333.4420       33769.70       .7125562    
   333.5810       33125.00       .7000686    
   333.7210       33668.70       .7119612    
   333.8610       32562.10       .6899655    
   334.0010       32716.50       .6938564    
   334.1410       33279.60       .7061725    
   334.2810       32636.00       .6936411    
   334.4200       33275.50       .7075452    
   334.5600       33479.90       .7125039    
   334.7000       32914.70       .7015589    
   334.8400       32363.70       .6908955    
   334.9800       32734.70       .6992920    
   335.1200       33281.00       .7113413    
   335.2590       32664.50       .6992825    
   335.3990       32176.60       .6898770    
   335.5390       32590.10       .6991895    
   335.6790       32550.70       .6990934    
   335.8190       32553.20       .6998690    
   335.9590       32769.30       .7050977    
   336.0980       31561.90       .6806315    
   336.2380       32022.00       .6909474    
   336.3780       32004.80       .6913047    
   336.5180       31991.40       .6917359    
   336.6580       31725.30       .6868781    
   336.7980       32129.00       .6960555    
   336.9370       32510.10       .7047706    
   337.0770       31902.60       .6927350    
   337.2170       31351.60       .6818656    
   337.3570       31847.90       .6930172    
   337.4970       30681.50       .6691582    
   337.6370       31912.10       .6958041    
   337.7760       31825.00       .6946797    
   337.9160       31164.30       .6814381    
   338.0560       31330.50       .6856585    
   338.1960       31292.70       .6855661    
   338.3360       31898.80       .6991140    
   338.4760       31764.80       .6969952    
   338.6150       31314.00       .6881365    
   338.7550       31198.70       .6863946    
   338.8950       31469.60       .6928669    
   339.0350       30688.70       .6769538    
   339.1750       31021.60       .6847444    
   339.3150       31045.00       .6859493    
   339.4540       30797.10       .6813579    
   339.5940       30614.70       .6781634    
   339.7340       31514.60       .6981132    
   339.8740       30850.80       .6846189    
   340.0140       31114.80       .6909810    
   340.1540       29967.80       .6670782    
   340.2930       30974.50       .6893820    
   340.4330       30230.50       .6740990    
   340.5730       30790.50       .6868418    
   340.7130       30174.10       .6742737    
   340.8530       30258.90       .6767974    
   340.9930       30351.60       .6794894    
   341.1320       30721.60       .6881756    
   341.2720       29595.40       .6645326    
   341.4120       30066.80       .6754147    
   341.5520       30601.40       .6876906    
   341.6920       29856.60       .6722478    
   341.8320       29835.40       .6724775    
   341.9710       30751.00       .6930535    
   342.1110       29628.00       .6693450    
   342.2510       30289.30       .6844231    
   342.3910       30342.80       .6862918    
   342.5310       29578.90       .6703329    
   342.6710       29820.60       .6763002    
   342.8100       29771.40       .6759118    
   342.9500       29399.10       .6684636    
   343.0900       29053.90       .6615899    
   343.2300       29374.50       .6692913    
   343.3700       30184.60       .6877422    
   343.5100       29563.00       .6748019    
   343.6490       29264.20       .6689221    
   343.7890       29075.70       .6654588    
   343.9290       29594.70       .6775694    
   344.0690       29873.00       .6843899    
   344.2090       29482.50       .6764758    
   344.3490       29416.40       .6757066    
   344.4880       29726.50       .6832467    
   344.6280       29216.00       .6726519    
   344.7680       29411.30       .6776583    
   344.9080       29003.10       .6693036    
   345.0480       29067.30       .6714113    
   345.1880       30081.90       .6946263    
   345.3270       29247.40       .6767799    
   345.4670       28794.00       .6673847    
   345.6070       28917.80       .6708219    
   345.7470       28431.70       .6606736    
   345.8870       29209.50       .6786969    